#date: 15.10.2020	time: 13:21:48
#t (s)	f (Hz)	A1 (V)	A2 (V)	phase (deg)
7.05	1.0000E+1	1.5296	Inf	+Inf
7.28	1.0100E+3	2.3808	Inf	+Inf
7.48	2.0100E+3	2.4071	Inf	+Inf
7.69	3.0100E+3	2.4558	Inf	+Inf
7.90	4.0100E+3	2.5204	Inf	+Inf
8.10	5.0100E+3	2.5968	Inf	+Inf
8.30	6.0100E+3	2.6813	Inf	+Inf
8.50	7.0100E+3	2.7699	Inf	+Inf
8.70	8.0100E+3	2.8710	Inf	+Inf
8.91	9.0100E+3	2.9738	Inf	+Inf
9.11	1.0010E+4	3.0701	Inf	+Inf
9.31	1.1010E+4	3.1519	0.4243	+161.5
9.53	1.2010E+4	3.2305	0.4565	+147.9
9.75	1.3010E+4	3.3145	0.4794	+151.9
9.98	1.4010E+4	3.3909	0.5025	+154.0
10.21	1.5010E+4	3.4607	0.5248	+157.1
10.43	1.6010E+4	3.5242	0.5424	+159.2
10.64	1.7010E+4	3.5814	0.5558	+159.9
10.88	1.8010E+4	3.6268	0.5695	+160.6
11.09	1.9010E+4	3.6686	0.5777	+162.4
11.31	2.0010E+4	3.7207	0.5920	+164.4
11.53	2.1010E+4	3.7631	0.6034	+167.3
11.76	2.2010E+4	3.8083	0.6148	+167.2
11.97	2.3010E+4	3.8451	0.6231	+168.8
12.19	2.4010E+4	3.8840	0.6317	+169.3
12.42	2.5010E+4	3.9210	0.6387	+169.9
12.64	2.6010E+4	3.9513	0.6452	+172.6
12.86	2.7010E+4	3.9792	0.6515	+173.7
13.09	2.8010E+4	4.0097	0.6569	+173.9
13.31	2.9010E+4	4.0355	0.6620	+174.0
13.54	3.0010E+4	4.0613	0.6652	+176.8
13.75	3.1010E+4	4.0852	0.6696	+175.9
13.96	3.2010E+4	4.1009	0.6726	+180.3
14.17	3.3010E+4	4.1212	0.6759	+178.2
14.39	3.4010E+4	4.1408	0.6787	+178.6
14.60	3.5010E+4	4.1557	0.6805	-179.3
14.82	3.6010E+4	4.1708	0.6826	-180.1
15.00	3.7010E+4	4.1827	0.6838	-176.3
15.23	3.8010E+4	4.1982	0.6865	-178.1
15.45	3.9010E+4	4.2124	0.6883	-174.7
15.67	4.0010E+4	4.2247	0.6896	-176.6
15.87	4.1010E+4	4.2367	0.6911	-174.1
16.08	4.2010E+4	4.2407	0.6920	-175.8
16.30	4.3010E+4	4.2523	0.6930	-174.2
16.48	4.4010E+4	4.2600	0.6934	-173.3
16.70	4.5010E+4	4.2675	0.6940	-171.8
16.88	4.6010E+4	4.2730	0.6945	-172.8
17.08	4.7010E+4	4.2837	0.6954	-172.0
17.26	4.8010E+4	4.2947	0.6957	-171.8
17.48	4.9010E+4	4.2960	0.6964	-170.7
17.66	5.0010E+4	4.3026	0.6966	-171.1
17.85	5.1010E+4	4.3101	0.6961	-170.5
18.03	5.2010E+4	4.3150	0.6958	-169.4
18.25	5.3010E+4	4.3176	0.6951	-167.8
18.43	5.4010E+4	4.3237	0.6947	-168.1
18.61	5.5010E+4	4.3306	0.6948	-168.9
18.79	5.6010E+4	4.3365	0.6938	-169.0
18.99	5.7010E+4	4.3414	0.6935	-166.7
19.18	5.8010E+4	4.3469	0.6932	-165.4
19.39	5.9010E+4	4.3490	0.6925	-166.8
19.57	6.0010E+4	4.3529	0.6910	-166.0
19.78	6.1010E+4	4.3595	0.6907	-164.0
19.96	6.2010E+4	4.3621	0.6901	-164.2
20.14	6.3010E+4	4.3679	0.6894	-164.2
20.32	6.4010E+4	4.3708	0.6889	-162.0
20.52	6.5010E+4	4.3674	0.6876	-161.2
20.76	6.6010E+4	4.3793	0.6872	-162.4
20.96	6.7010E+4	4.3800	0.6855	-159.4
21.16	6.8010E+4	4.3818	0.6850	-161.7
21.34	6.9010E+4	4.3826	0.6841	-161.3
21.52	7.0010E+4	4.3906	0.6825	-160.7
21.72	7.1010E+4	4.3906	0.6814	-160.4
21.90	7.2010E+4	4.3952	0.6812	-160.2
22.09	7.3010E+4	4.3933	0.6795	-158.6
22.30	7.4010E+4	4.3993	0.6790	-159.6
22.50	7.5010E+4	4.3972	0.6773	-155.2
22.72	7.6010E+4	4.4016	0.6763	-156.9
22.92	7.7010E+4	4.4023	0.6759	-157.7
23.10	7.8010E+4	4.4054	0.6744	-157.2
23.32	7.9010E+4	4.4044	0.6733	-156.9
23.50	8.0010E+4	4.4105	0.6718	-155.6
23.70	8.1010E+4	4.4121	0.6715	-156.1
23.88	8.2010E+4	4.4106	0.6696	-156.0
24.08	8.3010E+4	4.4160	0.6688	-155.9
24.30	8.4010E+4	4.4203	0.6675	-154.6
24.50	8.5010E+4	4.4189	0.6661	-152.2
24.70	8.6010E+4	4.4221	0.6654	-154.2
24.88	8.7010E+4	4.4244	0.6648	-153.4
25.06	8.8010E+4	4.4252	0.6633	-154.6
25.28	8.9010E+4	4.4278	0.6623	-153.2
25.48	9.0010E+4	4.4262	0.6600	-152.6
25.70	9.1010E+4	4.4334	0.6593	-151.9
25.89	9.2010E+4	4.4316	0.6578	-151.3
26.08	9.3010E+4	4.4327	0.6569	-149.5
26.28	9.4010E+4	4.4338	0.6558	-151.1
26.46	9.5010E+4	4.4375	0.6546	-150.0
26.66	9.6010E+4	4.4395	0.6538	-149.0
26.84	9.7010E+4	4.4409	0.6527	-149.9
27.04	9.8010E+4	4.4412	0.6508	-149.0
27.24	9.9010E+4	4.4381	0.6495	-149.4
27.43	1.0001E+5	4.4466	0.6491	-150.8
27.62	1.0101E+5	4.4466	0.6467	-149.6
27.81	1.0201E+5	4.4470	0.6469	-148.9
27.99	1.0301E+5	4.4447	0.6446	-147.3
28.21	1.0401E+5	4.4480	0.6442	-149.0
28.39	1.0501E+5	4.4514	0.6430	-147.3
28.59	1.0601E+5	4.4548	0.6419	-148.1
28.77	1.0701E+5	4.4551	0.6404	-148.2
29.00	1.0801E+5	4.4504	0.6392	-146.0
29.22	1.0901E+5	4.4575	0.6387	-145.1
29.42	1.1001E+5	4.4519	0.6371	-145.6
29.64	1.1101E+5	4.4630	0.6365	-147.2
29.85	1.1201E+5	4.4601	0.6350	-143.2
30.07	1.1301E+5	4.4587	0.6336	-144.4
30.25	1.1401E+5	4.4562	0.6322	-145.7
30.47	1.1501E+5	4.4603	0.6313	-143.0
30.65	1.1601E+5	4.4609	0.6303	-143.9
30.85	1.1701E+5	4.4613	0.6300	-142.7
31.03	1.1801E+5	4.4600	0.6283	-143.5
31.23	1.1901E+5	4.4635	0.6273	-144.1
31.43	1.2001E+5	4.4620	0.6262	-142.2
31.63	1.2101E+5	4.4644	0.6254	-143.8
31.82	1.2201E+5	4.4676	0.6234	-142.5
32.03	1.2301E+5	4.4692	0.6231	-144.3
32.22	1.2401E+5	4.4691	0.6218	-143.8
32.42	1.2501E+5	4.4726	0.6204	-141.1
32.61	1.2601E+5	4.4736	0.6206	-140.6
32.80	1.2701E+5	4.4722	0.6187	-142.4
32.98	1.2801E+5	4.4732	0.6180	-143.0
33.18	1.2901E+5	4.4736	0.6169	-140.5
33.36	1.3001E+5	4.4758	0.6155	-139.3
33.55	1.3101E+5	4.4767	0.6153	-141.3
33.73	1.3201E+5	4.4801	0.6145	-140.4
33.95	1.3301E+5	4.4777	0.6125	-138.8
34.13	1.3401E+5	4.4821	0.6121	-137.6
34.33	1.3501E+5	4.4818	0.6114	-136.5
34.51	1.3601E+5	4.4816	0.6098	-138.8
34.69	1.3701E+5	4.4832	0.6084	-137.2
34.91	1.3801E+5	4.4781	0.6077	-140.9
35.11	1.3901E+5	4.4846	0.6070	-137.7
35.33	1.4001E+5	4.4757	0.6070	-139.3
35.52	1.4101E+5	4.4862	0.6064	-138.8
35.76	1.4201E+5	4.4801	0.6044	-137.4
35.96	1.4301E+5	4.4863	0.6047	-137.6
36.16	1.4401E+5	4.4863	0.6023	-137.4
36.36	1.4501E+5	4.4856	0.6015	-136.8
36.54	1.4601E+5	4.4859	0.6019	-137.3
36.72	1.4701E+5	4.4860	0.6005	-137.7
36.94	1.4801E+5	4.4890	0.5985	-136.8
37.12	1.4901E+5	4.4872	0.5989	-135.2
37.30	1.5001E+5	4.4852	0.5975	-136.1
37.50	1.5101E+5	4.4900	0.5979	-134.4
37.69	1.5201E+5	4.4863	0.5958	-136.1
37.87	1.5301E+5	4.4890	0.5948	-136.3
38.07	1.5401E+5	4.4906	0.5948	-135.6
38.25	1.5501E+5	4.4887	0.5933	-134.4
38.44	1.5601E+5	4.4948	0.5933	-133.3
38.62	1.5701E+5	4.4931	0.5924	-134.8
38.83	1.5801E+5	4.4993	0.5927	-132.9
39.04	1.5901E+5	4.4927	0.5911	-134.8
39.23	1.6001E+5	4.4920	0.5897	-135.2
39.43	1.6101E+5	4.4971	0.5906	-132.9
39.65	1.6201E+5	4.4920	0.5892	-134.5
39.85	1.6301E+5	4.4966	0.5869	-134.6
40.07	1.6401E+5	4.4979	0.5880	-133.6
40.27	1.6501E+5	4.4995	0.5870	-132.6
40.45	1.6601E+5	4.4979	0.5868	-132.1
40.65	1.6701E+5	4.4966	0.5858	-132.7
40.83	1.6801E+5	4.5006	0.5851	-133.0
41.01	1.6901E+5	4.4993	0.5848	-132.2
41.20	1.7001E+5	4.5013	0.5838	-132.5
41.40	1.7101E+5	4.5019	0.5836	-132.6
41.58	1.7201E+5	4.5016	0.5827	-132.8
41.76	1.7301E+5	4.5017	0.5828	-130.6
41.95	1.7401E+5	4.5047	0.5824	-132.1
42.13	1.7501E+5	4.5009	0.5821	-133.2
42.31	1.7601E+5	4.5036	0.5815	-129.0
42.49	1.7701E+5	4.5012	0.5811	-131.6
42.71	1.7801E+5	4.5040	0.5818	-130.0
42.91	1.7901E+5	4.5033	0.5801	-129.5
43.12	1.8001E+5	4.5048	0.5801	-131.3
43.32	1.8101E+5	4.5041	0.5793	-131.4
43.51	1.8201E+5	4.5079	0.5783	-129.6
43.71	1.8301E+5	4.5094	0.5800	-132.3
43.91	1.8401E+5	4.5070	0.5784	-128.7
44.11	1.8501E+5	4.5095	0.5780	-130.4
44.29	1.8601E+5	4.5079	0.5762	-129.9
44.47	1.8701E+5	4.5057	0.5776	-128.4
44.66	1.8801E+5	4.5051	0.5764	-129.9
44.84	1.8901E+5	4.5085	0.5769	-131.0
45.02	1.9001E+5	4.5112	0.5754	-128.9
45.24	1.9101E+5	4.5109	0.5759	-131.1
45.44	1.9201E+5	4.5072	0.5770	-127.7
45.62	1.9301E+5	4.5109	0.5769	-127.3
45.80	1.9401E+5	4.5113	0.5766	-128.1
46.00	1.9501E+5	4.5123	0.5753	-129.0
46.23	1.9601E+5	4.5099	0.5747	-127.3
46.44	1.9701E+5	4.5130	0.5745	-129.2
46.63	1.9801E+5	4.5156	0.5752	-129.1
46.82	1.9901E+5	4.5099	0.5756	-127.9
47.02	2.0001E+5	4.5120	0.5750	-127.8
47.22	2.0101E+5	4.5170	0.5750	-127.2
47.40	2.0201E+5	4.5128	0.5756	-129.9
47.58	2.0301E+5	4.5156	0.5745	-127.9
47.77	2.0401E+5	4.5156	0.5747	-127.3
47.95	2.0501E+5	4.5113	0.5745	-127.3
48.16	2.0601E+5	4.5145	0.5743	-126.5
48.38	2.0701E+5	4.5184	0.5754	-127.9
48.56	2.0801E+5	4.5170	0.5745	-123.8
48.75	2.0901E+5	4.5128	0.5750	-129.2
48.93	2.1001E+5	4.5184	0.5745	-124.4
49.11	2.1101E+5	4.5184	0.5737	-126.1
49.30	2.1201E+5	4.5184	0.5745	-126.1
49.48	2.1301E+5	4.5142	0.5743	-126.4
49.66	2.1401E+5	4.5198	0.5760	-125.4
49.88	2.1501E+5	4.5170	0.5752	-124.8
50.08	2.1601E+5	4.5142	0.5750	-123.9
50.26	2.1701E+5	4.5184	0.5763	-125.2
50.48	2.1801E+5	4.5198	0.5759	-122.4
50.66	2.1901E+5	4.5227	0.5766	-124.7
50.84	2.2001E+5	4.5156	0.5763	-126.1
51.03	2.2101E+5	4.5198	0.5760	-125.8
51.21	2.2201E+5	4.5198	0.5778	-124.7
51.39	2.2301E+5	4.5227	0.5773	-122.3
51.57	2.2401E+5	4.5227	0.5774	-122.8
51.76	2.2501E+5	4.5170	0.5783	-123.5
51.94	2.2601E+5	4.5241	0.5781	-122.0
52.12	2.2701E+5	4.5212	0.5784	-122.4
52.31	2.2801E+5	4.5227	0.5788	-123.4
52.51	2.2901E+5	4.5212	0.5794	-124.0
52.69	2.3001E+5	4.5212	0.5798	-122.1
52.87	2.3101E+5	4.5255	0.5808	-122.1
53.05	2.3201E+5	4.5241	0.5801	-121.7
53.24	2.3301E+5	4.5184	0.5811	-121.1
53.42	2.3401E+5	4.5212	0.5811	-123.7
53.60	2.3501E+5	4.5241	0.5804	-121.2
53.79	2.3601E+5	4.5269	0.5827	-122.2
53.99	2.3701E+5	4.5269	0.5839	-122.5
54.17	2.3801E+5	4.5255	0.5838	-120.9
54.35	2.3901E+5	4.5255	0.5844	-121.1
54.55	2.4001E+5	4.5227	0.5858	-121.4
54.73	2.4101E+5	4.5241	0.5856	-120.6
54.92	2.4201E+5	4.5297	0.5869	-121.2
55.10	2.4301E+5	4.5269	0.5853	-120.7
55.28	2.4401E+5	4.5212	0.5887	-120.7
55.48	2.4501E+5	4.5227	0.5894	-119.6
55.66	2.4601E+5	4.5241	0.5900	-120.3
55.87	2.4701E+5	4.5297	0.5917	-120.6
56.05	2.4801E+5	4.5255	0.5902	-121.7
56.23	2.4901E+5	4.5227	0.5921	-119.8
56.41	2.5001E+5	4.5255	0.5931	-120.9
56.61	2.5101E+5	4.5255	0.5924	-120.4
56.83	2.5201E+5	4.5241	0.5962	-123.0
57.03	2.5301E+5	4.5241	0.5959	-120.7
57.21	2.5401E+5	4.5340	0.5971	-120.6
57.40	2.5501E+5	4.5227	0.5978	-119.6
57.58	2.5601E+5	4.5255	0.5998	-121.2
57.79	2.5701E+5	4.5227	0.5988	-118.9
57.98	2.5801E+5	4.5255	0.6012	-119.7
58.18	2.5901E+5	4.5283	0.6017	-120.1
58.36	2.6001E+5	4.5283	0.6017	-119.5
58.54	2.6101E+5	4.5255	0.6027	-118.6
58.73	2.6201E+5	4.5283	0.6050	-118.8
58.92	2.6301E+5	4.5269	0.6077	-120.1
59.12	2.6401E+5	4.5297	0.6080	-118.9
59.31	2.6501E+5	4.5297	0.6084	-119.1
59.49	2.6601E+5	4.5297	0.6109	-118.9
59.69	2.6701E+5	4.5255	0.6109	-118.7
59.87	2.6801E+5	4.5283	0.6156	-118.3
60.09	2.6901E+5	4.5269	0.6129	-119.4
60.30	2.7001E+5	4.5283	0.6165	-117.4
60.51	2.7101E+5	4.5255	0.6165	-117.3
60.69	2.7201E+5	4.5311	0.6184	-117.5
60.90	2.7301E+5	4.5326	0.6189	-116.7
61.09	2.7401E+5	4.5255	0.6206	-116.9
61.27	2.7501E+5	4.5297	0.6230	-116.0
61.47	2.7601E+5	4.5326	0.6244	-116.0
61.67	2.7701E+5	4.5368	0.6282	-114.0
61.87	2.7801E+5	4.5354	0.6285	-117.1
62.05	2.7901E+5	4.5227	0.6297	-116.4
62.25	2.8001E+5	4.5297	0.6320	-116.2
62.43	2.8101E+5	4.5326	0.6340	-115.0
62.63	2.8201E+5	4.5311	0.6347	-113.8
62.82	2.8301E+5	4.5297	0.6371	-117.4
63.02	2.8401E+5	4.5326	0.6372	-115.4
63.20	2.8501E+5	4.5269	0.6387	-115.6
63.40	2.8601E+5	4.5297	0.6413	-115.5
63.62	2.8701E+5	4.5283	0.6443	-113.9
63.81	2.8801E+5	4.5326	0.6433	-113.8
64.01	2.8901E+5	4.5283	0.6493	-112.4
64.21	2.9001E+5	4.5340	0.6507	-114.8
64.40	2.9101E+5	4.5269	0.6500	-115.2
64.58	2.9201E+5	4.5354	0.6548	-115.2
64.78	2.9301E+5	4.5283	0.6562	-115.2
64.98	2.9401E+5	4.5311	0.6593	-112.8
65.18	2.9501E+5	4.5269	0.6603	-113.4
65.36	2.9601E+5	4.5255	0.6616	-115.1
65.56	2.9701E+5	4.5368	0.6661	-114.2
65.76	2.9801E+5	4.5368	0.6672	-111.8
65.96	2.9901E+5	4.5354	0.6696	-113.4
66.16	3.0001E+5	4.5368	0.6732	-115.2
66.36	3.0101E+5	4.5326	0.6767	-112.8
66.56	3.0201E+5	4.5311	0.6767	-111.5
66.74	3.0301E+5	4.5283	0.6791	-111.7
66.94	3.0401E+5	4.5255	0.6832	-114.4
67.14	3.0501E+5	4.5368	0.6841	-112.0
67.32	3.0601E+5	4.5326	0.6883	-112.4
67.54	3.0701E+5	4.5326	0.6917	-112.6
67.74	3.0801E+5	4.5297	0.6955	-112.0
67.94	3.0901E+5	4.5297	0.6975	-112.1
68.14	3.1001E+5	4.5311	0.7006	-112.7
68.34	3.1101E+5	4.5297	0.7043	-110.8
68.54	3.1201E+5	4.5354	0.7072	-112.3
68.74	3.1301E+5	4.5326	0.7128	-110.9
68.94	3.1401E+5	4.5326	0.7136	-110.8
69.12	3.1501E+5	4.5255	0.7212	-111.6
69.32	3.1601E+5	4.5425	0.7251	-112.9
69.55	3.1701E+5	4.5283	0.7286	-111.4
69.78	3.1801E+5	4.5425	0.7319	-113.6
70.02	3.1901E+5	4.5354	0.7357	-111.5
70.23	3.2001E+5	4.5297	0.7396	-110.8
70.43	3.2101E+5	4.5354	0.7430	-111.5
70.63	3.2201E+5	4.5354	0.7454	-112.2
70.83	3.2301E+5	4.5368	0.7511	-108.7
71.03	3.2401E+5	4.5340	0.7562	-110.2
71.23	3.2501E+5	4.5396	0.7593	-109.8
71.43	3.2601E+5	4.5311	0.7648	-108.6
71.63	3.2701E+5	4.5311	0.7716	-109.0
71.83	3.2801E+5	4.5297	0.7773	-108.3
72.03	3.2901E+5	4.5269	0.7833	-110.9
72.25	3.3001E+5	4.5354	0.7859	-108.0
72.45	3.3101E+5	4.5410	0.7903	-107.0
72.68	3.3201E+5	4.5410	0.7941	-109.1
72.88	3.3301E+5	4.5283	0.8010	-109.2
73.11	3.3401E+5	4.5340	0.8105	-108.8
73.33	3.3501E+5	4.5354	0.8119	-107.3
73.51	3.3601E+5	4.5368	0.8160	-105.8
73.71	3.3701E+5	4.5326	0.8239	-106.5
73.91	3.3801E+5	4.5382	0.8251	-105.5
74.11	3.3901E+5	4.5354	0.8352	-104.8
74.33	3.4001E+5	4.5396	0.8355	-105.0
74.51	3.4101E+5	4.5326	0.8453	-105.4
74.71	3.4201E+5	4.5326	0.8457	-104.4
74.89	3.4301E+5	4.5368	0.8574	-105.3
75.09	3.4401E+5	4.5368	0.8618	-104.8
75.31	3.4501E+5	4.5326	0.8666	-105.1
75.51	3.4601E+5	4.5326	0.8761	-105.4
75.71	3.4701E+5	4.5382	0.8785	-103.1
75.91	3.4801E+5	4.5368	0.8815	-106.0
76.10	3.4901E+5	4.5396	0.8928	-104.4
76.31	3.5001E+5	4.5354	0.8969	-104.5
76.50	3.5101E+5	4.5439	0.9074	-103.5
76.72	3.5201E+5	4.5368	0.9141	-105.1
76.94	3.5301E+5	4.5382	0.9192	-103.1
77.14	3.5401E+5	4.5311	0.9345	-100.2
77.34	3.5501E+5	4.5311	0.9347	-101.9
77.52	3.5601E+5	4.5269	0.9426	-101.3
77.73	3.5701E+5	4.5297	0.9590	-102.6
77.94	3.5801E+5	4.5326	0.9632	-102.4
78.14	3.5901E+5	4.5311	0.9693	-99.8
78.33	3.6001E+5	4.5354	0.9829	-99.8
78.53	3.6101E+5	4.5311	0.9928	-100.6
78.73	3.6201E+5	4.5326	1.0015	-100.5
78.93	3.6301E+5	4.5283	1.0107	-98.5
79.13	3.6401E+5	4.5283	1.0228	-98.3
79.33	3.6501E+5	4.5241	1.0409	-98.6
79.53	3.6601E+5	4.5311	1.0495	-99.1
79.73	3.6701E+5	4.5326	1.0625	-95.8
79.93	3.6801E+5	4.5297	1.0761	-97.6
80.13	3.6901E+5	4.5311	1.0809	-98.1
80.35	3.7001E+5	4.5283	1.0916	-97.1
80.55	3.7101E+5	4.5255	1.1020	-95.7
80.75	3.7201E+5	4.5326	1.1138	-96.4
80.94	3.7301E+5	4.5156	1.1264	-95.9
81.14	3.7401E+5	4.5241	1.1404	-93.6
81.34	3.7501E+5	4.5170	1.1587	-92.8
81.54	3.7601E+5	4.5241	1.1646	-95.4
81.74	3.7701E+5	4.5227	1.1754	-93.6
81.94	3.7801E+5	4.5184	1.1957	-92.4
82.14	3.7901E+5	4.5142	1.2043	-92.1
82.34	3.8001E+5	4.5198	1.2261	-93.3
82.54	3.8101E+5	4.5128	1.2397	-90.8
82.74	3.8201E+5	4.5227	1.2496	-91.8
82.94	3.8301E+5	4.5184	1.2656	-88.0
83.14	3.8401E+5	4.5184	1.2784	-87.8
83.34	3.8501E+5	4.5142	1.2920	-89.7
83.54	3.8601E+5	4.5170	1.3144	-87.3
83.74	3.8701E+5	4.5184	1.3336	-87.5
83.94	3.8801E+5	4.5099	1.3435	-86.2
84.16	3.8901E+5	4.5183	1.3617	-85.9
84.37	3.9001E+5	4.5142	1.3883	-85.4
84.57	3.9101E+5	4.5113	1.4070	-84.0
84.79	3.9201E+5	4.5116	1.4381	-85.6
85.02	3.9301E+5	4.5184	1.4583	-82.5
85.22	3.9401E+5	4.5198	1.4777	-81.5
85.42	3.9501E+5	4.5170	1.4977	-79.1
85.62	3.9601E+5	4.5184	1.5172	-79.5
85.82	3.9701E+5	4.5142	1.5370	-79.9
86.02	3.9801E+5	4.5142	1.5672	-78.1
86.22	3.9901E+5	4.5099	1.5784	-77.2
86.45	4.0001E+5	4.5178	1.5933	-75.6
86.67	4.0101E+5	4.5184	1.6087	-75.2
86.87	4.0201E+5	4.5184	1.6409	-73.2
87.06	4.0301E+5	4.5142	1.6675	-72.0
87.27	4.0401E+5	4.5170	1.6891	-71.2
87.47	4.0501E+5	4.5227	1.7102	-69.2
87.66	4.0601E+5	4.5156	1.7297	-68.6
87.86	4.0701E+5	4.5198	1.7518	-67.4
88.06	4.0801E+5	4.5170	1.7784	-66.6
88.26	4.0901E+5	4.5184	1.7980	-65.1
88.46	4.1001E+5	4.5212	1.8116	-63.6
88.66	4.1101E+5	4.5184	1.8381	-59.9
88.86	4.1201E+5	4.5184	1.8499	-60.2
89.06	4.1301E+5	4.5198	1.8744	-58.8
89.26	4.1401E+5	4.5255	1.8926	-55.2
89.46	4.1501E+5	4.5212	1.9030	-53.5
89.66	4.1601E+5	4.5227	1.9206	-51.6
89.86	4.1701E+5	4.5212	1.9328	-49.5
90.06	4.1801E+5	4.5184	1.9525	-47.9
90.28	4.1901E+5	4.5241	1.9621	-47.2
90.47	4.2001E+5	4.5198	1.9711	-45.2
90.69	4.2101E+5	4.5283	1.9799	-43.3
90.89	4.2201E+5	4.5255	1.9792	-39.9
91.07	4.2301E+5	4.5283	1.9875	-40.8
91.27	4.2401E+5	4.5241	1.9902	-36.1
91.47	4.2501E+5	4.5255	1.9874	-34.8
91.67	4.2601E+5	4.5170	1.9789	-34.9
91.87	4.2701E+5	4.5255	1.9769	-30.2
92.07	4.2801E+5	4.5269	1.9643	-31.0
92.27	4.2901E+5	4.5198	1.9495	-27.2
92.47	4.3001E+5	4.5283	1.9304	-25.9
92.67	4.3101E+5	4.5283	1.9239	-24.2
92.87	4.3201E+5	4.5269	1.8982	-23.4
93.07	4.3301E+5	4.5283	1.8846	-18.9
93.27	4.3401E+5	4.5255	1.8615	-16.4
93.48	4.3501E+5	4.5241	1.8402	-19.2
93.68	4.3601E+5	4.5269	1.8243	-13.3
93.88	4.3701E+5	4.5283	1.8020	-13.8
94.08	4.3801E+5	4.5283	1.7812	-11.0
94.30	4.3901E+5	4.5340	1.7521	-12.4
94.50	4.4001E+5	4.5283	1.7324	-6.6
94.72	4.4101E+5	4.5269	1.6992	-5.8
94.92	4.4201E+5	4.5269	1.6724	-4.1
95.11	4.4301E+5	4.5354	1.6543	-3.1
95.31	4.4401E+5	4.5283	1.6222	-2.9
95.51	4.4501E+5	4.5255	1.5976	-2.0
95.73	4.4601E+5	4.5269	1.5660	-1.0
95.95	4.4701E+5	4.5297	1.5471	+2.3
96.15	4.4801E+5	4.5241	1.5042	+1.0
96.34	4.4901E+5	4.5311	1.4861	+3.9
96.55	4.5001E+5	4.5311	1.4626	+5.6
96.75	4.5101E+5	4.5311	1.4291	+4.6
96.96	4.5201E+5	4.5283	1.3961	+7.4
97.16	4.5301E+5	4.5255	1.3725	+5.5
97.36	4.5401E+5	4.5326	1.3400	+11.0
97.56	4.5501E+5	4.5269	1.3091	+10.6
97.78	4.5601E+5	4.5326	1.2933	+12.0
97.98	4.5701E+5	4.5297	1.2557	+13.9
98.18	4.5801E+5	4.5269	1.2367	+12.5
98.37	4.5901E+5	4.5439	1.2203	+15.6
98.61	4.6001E+5	4.5241	1.1922	+13.6
98.82	4.6101E+5	4.5340	1.1708	+17.0
99.02	4.6201E+5	4.5354	1.1478	+17.3
99.24	4.6301E+5	4.5368	1.1359	+17.2
99.46	4.6401E+5	4.5269	1.0980	+17.2
99.66	4.6501E+5	4.5297	1.0962	+17.0
99.84	4.6601E+5	4.5311	1.0786	+18.3
100.04	4.6701E+5	4.5283	1.0568	+19.1
100.24	4.6801E+5	4.5340	1.0329	+20.4
100.44	4.6901E+5	4.5368	1.0188	+21.3
100.64	4.7001E+5	4.5297	0.9936	+22.6
100.84	4.7101E+5	4.5283	0.9694	+23.6
101.04	4.7201E+5	4.5297	0.9550	+24.0
101.24	4.7301E+5	4.5241	0.9322	+23.3
101.44	4.7401E+5	4.5311	0.9228	+23.1
101.63	4.7501E+5	4.5354	0.8989	+24.1
101.83	4.7601E+5	4.5340	0.8853	+24.5
102.03	4.7701E+5	4.5311	0.8768	+24.9
102.23	4.7801E+5	4.5382	0.8666	+26.6
102.43	4.7901E+5	4.5283	0.8485	+27.7
102.63	4.8001E+5	4.5354	0.8327	+24.7
102.85	4.8101E+5	4.5326	0.8242	+28.0
103.05	4.8201E+5	4.5297	0.8153	+27.4
103.25	4.8301E+5	4.5326	0.7990	+31.1
103.45	4.8401E+5	4.5326	0.7760	+29.6
103.65	4.8501E+5	4.5340	0.7669	+29.6
103.86	4.8601E+5	4.5283	0.7567	+29.2
104.06	4.8701E+5	4.5269	0.7490	+29.4
104.26	4.8801E+5	4.5368	0.7302	+29.2
104.46	4.8901E+5	4.5311	0.7138	+27.9
104.66	4.9001E+5	4.5283	0.7115	+30.4
104.84	4.9101E+5	4.5297	0.7000	+29.9
105.04	4.9201E+5	4.5425	0.6893	+30.7
105.28	4.9301E+5	4.5326	0.6634	+33.6
105.51	4.9401E+5	4.5297	0.6696	+33.2
105.71	4.9501E+5	4.5340	0.6552	+30.7
105.91	4.9601E+5	4.5311	0.6452	+32.4
106.11	4.9701E+5	4.5340	0.6398	+32.0
106.31	4.9801E+5	4.5354	0.6365	+32.7
106.51	4.9901E+5	4.5311	0.6248	+31.0
106.71	5.0001E+5	4.5340	0.6080	+35.0
106.91	5.0101E+5	4.5326	0.6043	+35.5
107.11	5.0201E+5	4.5354	0.6034	+35.2
107.31	5.0301E+5	4.5340	0.5952	+35.5
107.50	5.0401E+5	4.5311	0.5829	+36.0
107.70	5.0501E+5	4.5368	0.5745	+35.5
107.90	5.0601E+5	4.5340	0.5631	+33.8
108.12	5.0701E+5	4.5326	0.5588	+35.3
108.32	5.0801E+5	4.5297	0.5530	+35.3
108.52	5.0901E+5	4.5241	0.5469	+35.0
108.72	5.1001E+5	4.5311	0.5409	+35.1
108.94	5.1101E+5	4.5354	0.5346	+34.1
109.14	5.1201E+5	4.5311	0.5257	+36.7
109.33	5.1301E+5	4.5311	0.5196	+35.2
109.53	5.1401E+5	4.5382	0.5129	+35.5
109.73	5.1501E+5	4.5368	0.4999	+36.7
109.93	5.1601E+5	4.5326	0.5070	+35.2
110.13	5.1701E+5	4.5297	0.4873	+36.7
110.33	5.1801E+5	4.5326	0.4890	+36.6
110.53	5.1901E+5	4.5354	0.4798	+37.0
110.73	5.2001E+5	4.5283	0.4756	+38.0
110.93	5.2101E+5	4.5311	0.4714	+37.0
111.13	5.2201E+5	4.5354	0.4583	+38.3
111.33	5.2301E+5	4.5340	0.4619	+37.1
111.53	5.2401E+5	4.5368	0.4538	+42.1
111.73	5.2501E+5	4.5326	0.4468	+37.7
111.93	5.2601E+5	4.5311	0.4394	+38.4
112.13	5.2701E+5	4.5326	0.4397	+35.5
112.31	5.2801E+5	4.5311	0.4361	+38.5
112.51	5.2901E+5	4.5340	0.4274	+38.6
112.71	5.3001E+5	4.5297	0.4227	+37.3
112.91	5.3101E+5	4.5283	0.4214	+36.2
113.09	5.3201E+5	4.5326	0.4127	+38.6
113.29	5.3301E+5	4.5326	0.4089	+37.1
113.49	5.3401E+5	4.5297	0.4054	+40.9
113.69	5.3501E+5	4.5368	0.4000	+41.0
113.89	5.3601E+5	4.5340	0.4041	+39.8
114.09	5.3701E+5	4.5326	0.3988	+40.2
114.29	5.3801E+5	4.5340	0.3889	+39.2
114.49	5.3901E+5	4.5340	0.3824	+38.5
114.69	5.4001E+5	4.5311	0.3779	+40.4
114.89	5.4101E+5	4.5283	0.3814	+40.9
115.11	5.4201E+5	4.5269	0.3670	+40.1
115.31	5.4301E+5	4.5212	0.3649	+39.9
115.50	5.4401E+5	4.5368	0.3696	+41.8
115.70	5.4501E+5	4.5382	0.3633	+38.9
115.90	5.4601E+5	4.5297	0.3533	+40.9
116.10	5.4701E+5	4.5297	0.3613	+39.7
116.30	5.4801E+5	4.5368	0.3525	+40.6
116.50	5.4901E+5	4.5340	0.3445	+39.2
116.70	5.5001E+5	4.5368	0.3398	+41.7
116.90	5.5101E+5	4.5368	0.3384	+42.7
117.08	5.5201E+5	4.5340	0.3326	+42.9
117.30	5.5301E+5	4.5297	0.3300	+42.6
117.50	5.5401E+5	4.5269	0.3301	+43.3
117.68	5.5501E+5	4.5368	0.3276	+41.5
117.88	5.5601E+5	4.5297	0.3226	+42.6
118.08	5.5701E+5	4.5311	0.3194	+38.7
118.28	5.5801E+5	4.5326	0.3192	+43.8
118.47	5.5901E+5	4.5311	0.3181	+38.9
118.67	5.6001E+5	4.5297	0.3143	+43.5
118.86	5.6101E+5	4.5311	0.3119	+41.6
119.06	5.6201E+5	4.5283	0.3081	+38.0
119.26	5.6301E+5	4.5297	0.3050	+42.3
119.46	5.6401E+5	4.5311	0.2982	+42.7
119.66	5.6501E+5	4.5311	0.3020	+40.0
119.86	5.6601E+5	4.5297	0.2957	+43.1
120.06	5.6701E+5	4.5340	0.3041	+42.5
120.26	5.6801E+5	4.5326	0.2846	+41.4
120.46	5.6901E+5	4.5297	0.2968	+42.5
120.66	5.7001E+5	4.5382	0.2865	+39.6
120.86	5.7101E+5	4.5269	0.2847	+41.7
121.04	5.7201E+5	4.5382	0.2834	+41.0
121.24	5.7301E+5	4.5354	0.2794	+42.8
121.42	5.7401E+5	4.5382	0.2835	+41.4
121.63	5.7501E+5	4.5326	0.2736	+39.2
121.82	5.7601E+5	4.5340	0.2659	+44.1
122.02	5.7701E+5	4.5340	0.2707	+43.4
122.22	5.7801E+5	4.5311	0.2724	+44.6
122.42	5.7901E+5	4.5326	0.2616	+43.2
122.62	5.8001E+5	4.5396	0.2701	+41.6
122.82	5.8101E+5	4.5368	0.2599	+41.7
123.02	5.8201E+5	4.5311	0.2607	+41.6
123.20	5.8301E+5	4.5297	0.2550	+41.7
123.42	5.8401E+5	4.5283	0.2595	+39.4
123.62	5.8501E+5	4.5396	0.2531	+39.4
123.82	5.8601E+5	4.5297	0.2545	+42.6
124.02	5.8701E+5	4.5255	0.2489	+41.7
124.22	5.8801E+5	4.5368	0.2411	+41.2
124.42	5.8901E+5	4.5326	0.2498	+40.8
124.62	5.9001E+5	4.5311	0.2431	+41.1
124.82	5.9101E+5	4.5354	0.2398	+44.1
125.02	5.9201E+5	4.5326	0.2427	+43.9
125.22	5.9301E+5	4.5326	0.2376	+44.1
125.43	5.9401E+5	4.5326	0.2346	+45.0
125.63	5.9501E+5	4.5326	0.2307	+41.1
125.85	5.9601E+5	4.5269	0.2374	+40.9
126.05	5.9701E+5	4.5297	0.2268	+43.4
126.25	5.9801E+5	4.5283	0.2302	+43.0
126.45	5.9901E+5	4.5340	0.2265	+41.3
126.65	6.0001E+5	4.5326	0.2216	+41.6
126.85	6.0101E+5	4.5297	0.2283	+41.6
127.05	6.0201E+5	4.5283	0.2237	+41.9
127.25	6.0301E+5	4.5368	0.2181	+41.7
127.45	6.0401E+5	4.5255	0.2201	+41.7
127.64	6.0501E+5	4.5283	0.2195	+42.7
127.84	6.0601E+5	4.5311	0.2109	+44.5
128.04	6.0701E+5	4.5283	0.2145	+42.5
128.25	6.0801E+5	4.5255	0.2138	+44.3
128.46	6.0901E+5	4.5297	0.2126	+41.8
128.66	6.1001E+5	4.5241	0.2106	+43.3
128.86	6.1101E+5	4.5326	0.2147	+36.7
129.06	6.1201E+5	4.5311	0.2064	+43.3
129.26	6.1301E+5	4.5255	0.2023	+44.4
129.46	6.1401E+5	4.5311	0.2069	+43.6
129.66	6.1501E+5	4.5311	0.2061	+39.9
129.84	6.1601E+5	4.5297	0.2048	+42.8
130.04	6.1701E+5	4.5297	0.2019	+43.2
130.24	6.1801E+5	4.5269	0.1973	+41.2
130.44	6.1901E+5	4.5269	0.1989	+42.6
130.64	6.2001E+5	4.5227	0.1993	+42.3
130.82	6.2101E+5	4.5255	0.1919	+44.0
131.02	6.2201E+5	4.5269	0.1951	+40.7
131.22	6.2301E+5	4.5241	0.1926	+42.2
131.42	6.2401E+5	4.5297	0.1928	+42.2
131.60	6.2501E+5	4.5297	0.1886	+42.4
131.80	6.2601E+5	4.5297	0.1905	+46.1
132.00	6.2701E+5	4.5227	0.1910	+44.0
132.19	6.2801E+5	4.5326	0.1847	+43.3
132.38	6.2901E+5	4.5227	0.1828	+42.9
132.60	6.3001E+5	4.5241	0.1868	+44.9
132.80	6.3101E+5	4.5241	0.1817	+42.9
133.00	6.3201E+5	4.5241	0.1827	+42.2
133.20	6.3301E+5	4.5241	0.1823	+44.2
133.38	6.3401E+5	4.5212	0.1807	+39.7
133.58	6.3501E+5	4.5269	0.1806	+44.2
133.77	6.3601E+5	4.5241	0.1781	+42.6
133.97	6.3701E+5	4.5170	0.1769	+43.5
134.16	6.3801E+5	4.5255	0.1745	+44.5
134.37	6.3901E+5	4.5212	0.1700	+44.4
134.56	6.4001E+5	4.5283	0.1756	+40.4
134.76	6.4101E+5	4.5269	0.1739	+40.7
134.96	6.4201E+5	4.5311	0.1688	+42.9
135.16	6.4301E+5	4.5227	0.1691	+40.4
135.36	6.4401E+5	4.5255	0.1684	+38.4
135.56	6.4501E+5	4.5241	0.1669	+43.6
135.76	6.4601E+5	4.5255	0.1697	+43.2
135.96	6.4701E+5	4.5241	0.1692	+43.3
136.14	6.4801E+5	4.5184	0.1622	+42.6
136.34	6.4901E+5	4.5198	0.1644	+39.1
136.54	6.5001E+5	4.5227	0.1599	+41.6
136.74	6.5101E+5	4.5241	0.1609	+39.5
136.94	6.5201E+5	4.5227	0.1619	+42.1
137.14	6.5301E+5	4.5283	0.1573	+45.0
137.34	6.5401E+5	4.5184	0.1570	+43.8
137.53	6.5501E+5	4.5198	0.1588	+39.1
137.72	6.5601E+5	4.5184	0.1569	+39.1
137.92	6.5701E+5	4.5184	0.1564	+43.8
138.11	6.5801E+5	4.5255	0.1551	+39.6
138.31	6.5901E+5	4.5156	0.1558	+44.6
138.49	6.6001E+5	4.5156	0.1549	+47.7
138.67	6.6101E+5	4.5184	0.1546	+43.6
138.87	6.6201E+5	4.5283	0.1517	+40.6
139.07	6.6301E+5	4.5241	0.1495	+43.0
139.27	6.6401E+5	4.5212	0.1507	+43.6
139.47	6.6501E+5	4.5255	0.1493	+41.9
139.67	6.6601E+5	4.5212	0.1516	+37.1
139.87	6.6701E+5	4.5269	0.1446	+48.2
140.07	6.6801E+5	4.5227	0.1486	+44.6
140.27	6.6901E+5	4.5142	0.1456	+44.0
140.47	6.7001E+5	4.5156	0.1434	+40.6
140.67	6.7101E+5	4.5212	0.1444	+39.6
140.87	6.7201E+5	4.5255	0.1409	+43.6
141.07	6.7301E+5	4.5241	0.1436	+40.9
141.27	6.7401E+5	4.5212	0.1435	+42.1
141.47	6.7501E+5	4.5170	0.1432	+36.7
141.65	6.7601E+5	4.5283	0.1396	+47.3
141.85	6.7701E+5	4.5184	0.1428	+44.8
142.05	6.7801E+5	4.5198	0.1406	+40.4
142.25	6.7901E+5	4.5227	0.1406	+38.9
142.43	6.8001E+5	4.5227	0.1371	+41.0
142.63	6.8101E+5	4.5255	0.1376	+45.5
142.80	6.8201E+5	4.5198	0.1412	+39.5
143.00	6.8301E+5	4.5156	0.1333	+41.6
143.20	6.8401E+5	4.5113	0.1361	+38.6
143.41	6.8501E+5	4.5217	0.1328	+43.2
143.63	6.8601E+5	4.5241	0.1350	+44.6
143.83	6.8701E+5	4.5212	0.1329	+40.4
144.03	6.8801E+5	4.5255	0.1326	+44.1
144.21	6.8901E+5	4.5212	0.1307	+38.9
144.41	6.9001E+5	4.5241	0.1308	+43.9
144.59	6.9101E+5	4.5297	0.1323	+41.0
144.79	6.9201E+5	4.5170	0.1293	+45.4
144.99	6.9301E+5	4.5198	0.1325	+41.5
145.19	6.9401E+5	4.5283	0.1277	+46.0
145.39	6.9501E+5	4.5212	0.1269	+38.5
145.57	6.9601E+5	4.5227	0.1257	+41.3
145.77	6.9701E+5	4.5212	0.1253	+37.6
145.96	6.9801E+5	4.5184	0.1272	+43.2
146.16	6.9901E+5	4.5227	0.1240	+40.6
146.36	7.0001E+5	4.5170	0.1246	+37.4
146.54	7.0101E+5	4.5156	0.1253	+44.9
146.74	7.0201E+5	4.5170	0.1237	+42.2
146.94	7.0301E+5	4.5184	0.1233	+46.8
147.12	7.0401E+5	4.5198	0.1246	+41.6
147.32	7.0501E+5	4.5255	0.1220	+40.3
147.52	7.0601E+5	4.5269	0.1209	+43.0
147.72	7.0701E+5	4.5198	0.1209	+42.1
147.92	7.0801E+5	4.5227	0.1190	+41.2
148.12	7.0901E+5	4.5198	0.1185	+39.9
148.30	7.1001E+5	4.5227	0.1189	+41.7
148.49	7.1101E+5	4.5184	0.1138	+35.5
148.68	7.1201E+5	4.5269	0.1164	+38.0
148.88	7.1301E+5	4.5255	0.1172	+42.0
149.08	7.1401E+5	4.5170	0.1181	+36.6
149.27	7.1501E+5	4.5212	0.1141	+39.8
149.47	7.1601E+5	4.5241	0.1167	+41.3
149.67	7.1701E+5	4.5212	0.1153	+40.0
149.85	7.1801E+5	4.5198	0.1140	+46.0
150.05	7.1901E+5	4.5212	0.1113	+38.8
150.25	7.2001E+5	4.5184	0.1133	+42.1
150.45	7.2101E+5	4.5269	0.1119	+41.0
150.65	7.2201E+5	4.5184	0.1145	+43.5
150.85	7.2301E+5	4.5227	0.1152	+36.2
151.03	7.2401E+5	4.5184	0.1117	+40.4
151.23	7.2501E+5	4.5227	0.1095	+37.2
151.43	7.2601E+5	4.5184	0.1101	+39.3
151.63	7.2701E+5	4.5269	0.1096	+35.8
151.81	7.2801E+5	4.5255	0.1070	+38.4
152.01	7.2901E+5	4.5184	0.1205	+31.5
152.21	7.3001E+5	4.5269	0.1074	+44.8
152.41	7.3101E+5	4.5170	0.1095	+39.5
152.61	7.3201E+5	4.5283	0.1079	+40.9
152.81	7.3301E+5	4.5241	0.1077	+39.8
152.99	7.3401E+5	4.5255	0.1082	+35.7
153.19	7.3501E+5	4.5227	0.1070	+41.8
153.39	7.3601E+5	4.5212	0.1044	+42.0
153.59	7.3701E+5	4.5227	0.1046	+39.7
153.77	7.3801E+5	4.5184	0.1055	+40.8
153.97	7.3901E+5	4.5198	0.1030	-317.3
154.17	7.4001E+5	4.5212	0.1044	+37.7
154.37	7.4101E+5	4.5212	0.1054	+40.1
154.57	7.4201E+5	4.5184	0.1055	+39.4
154.75	7.4301E+5	4.5198	0.1036	+43.8
154.95	7.4401E+5	4.5156	0.1035	+45.7
155.14	7.4501E+5	4.5156	0.1027	+43.5
155.32	7.4601E+5	4.5184	0.1029	+44.9
155.50	7.4701E+5	4.5142	0.1023	+40.1
155.70	7.4801E+5	4.5198	0.1006	+37.0
155.90	7.4901E+5	4.5198	0.1029	+38.8
156.10	7.5001E+5	4.5212	0.0996	+36.9
156.30	7.5101E+5	4.5170	0.1020	+38.8
156.50	7.5201E+5	4.5156	0.0989	+40.7
156.70	7.5301E+5	4.5198	0.0982	+37.6
156.90	7.5401E+5	4.5212	0.1002	+38.1
157.10	7.5501E+5	4.5184	0.0996	+40.9
157.30	7.5601E+5	4.5198	0.0988	+35.8
157.48	7.5701E+5	4.5198	0.0980	+41.2
157.68	7.5801E+5	4.5170	0.0988	+36.7
157.88	7.5901E+5	4.5255	0.0965	+41.9
158.08	7.6001E+5	4.5241	0.1044	+34.8
158.28	7.6101E+5	4.5184	0.0975	+39.9
158.48	7.6201E+5	4.5227	0.0967	+41.5
158.68	7.6301E+5	4.5269	0.0971	+41.2
158.88	7.6401E+5	4.5212	0.0958	+38.1
159.08	7.6501E+5	4.5170	0.0951	+36.4
159.28	7.6601E+5	4.5311	0.0967	+33.4
159.48	7.6701E+5	4.5170	0.0943	+39.5
159.68	7.6801E+5	4.5156	0.0908	+35.9
159.88	7.6901E+5	4.5212	0.0945	+37.5
160.08	7.7001E+5	4.5170	0.0924	+40.9
160.28	7.7101E+5	4.5184	0.0917	+36.6
160.46	7.7201E+5	4.5212	0.0942	+36.0
160.66	7.7301E+5	4.5128	0.0930	+38.2
160.86	7.7401E+5	4.5241	0.0930	+34.3
161.04	7.7501E+5	4.5184	0.0921	+36.6
161.24	7.7601E+5	4.5212	0.0913	+33.6
161.42	7.7701E+5	4.5170	0.0915	+43.7
161.61	7.7801E+5	4.5255	0.0905	+36.3
161.81	7.7901E+5	4.5184	0.0904	+38.0
161.99	7.8001E+5	4.5198	0.0920	+38.7
162.19	7.8101E+5	4.5184	0.0898	-319.2
162.39	7.8201E+5	4.5170	0.0897	+35.5
162.59	7.8301E+5	4.5156	0.0893	+41.5
162.75	7.8401E+5	4.5156	0.0880	+34.9
162.95	7.8501E+5	4.5156	0.0879	+36.9
163.14	7.8601E+5	4.5198	0.0879	+37.6
163.32	7.8701E+5	4.5142	0.0898	+31.1
163.52	7.8801E+5	4.5128	0.0879	+36.5
163.72	7.8901E+5	4.5170	0.0878	+36.2
163.90	7.9001E+5	4.5113	0.0876	+34.8
164.09	7.9101E+5	4.5184	Inf	+45.5
164.28	7.9201E+5	4.5170	0.0954	+37.4
164.48	7.9301E+5	4.5170	0.0868	+32.0
164.68	7.9401E+5	4.5170	0.0860	+36.9
164.87	7.9501E+5	4.5142	0.0852	+37.6
165.07	7.9601E+5	4.5198	0.0852	+35.7
165.25	7.9701E+5	4.5198	0.0833	+35.7
165.45	7.9801E+5	4.5113	0.0835	+41.4
165.65	7.9901E+5	4.5219	0.0834	+36.1
165.85	8.0001E+5	4.5212	0.0828	+39.2
166.03	8.0101E+5	4.5142	0.0831	+40.4
166.21	8.0201E+5	4.5099	0.0828	+34.2
166.41	8.0301E+5	4.5101	Inf	+36.7
166.60	8.0401E+5	4.5181	0.0826	+29.0
166.81	8.0501E+5	4.5184	0.0830	+35.5
167.01	8.0601E+5	4.5142	0.0827	+38.3
167.19	8.0701E+5	4.5255	0.0835	+36.0
167.36	8.0801E+5	4.5156	0.0813	+36.6
167.56	8.0901E+5	4.5227	0.0819	+29.9
167.76	8.1001E+5	4.5156	0.0809	+30.8
167.96	8.1101E+5	4.5241	0.0795	-319.7
168.16	8.1201E+5	4.5184	Inf	+37.4
168.34	8.1301E+5	4.5170	0.0806	+38.3
168.54	8.1401E+5	4.5142	0.0797	+34.8
168.74	8.1501E+5	4.5071	0.0783	+34.9
168.96	8.1601E+5	4.5171	0.0801	+36.9
169.17	8.1701E+5	4.5198	0.0876	+45.1
169.37	8.1801E+5	4.5085	0.0794	+31.1
169.57	8.1901E+5	4.5253	0.0780	+40.7
169.79	8.2001E+5	4.5142	0.0786	+35.4
169.99	8.2101E+5	4.5184	0.0778	+36.7
170.19	8.2201E+5	4.5156	0.0786	+33.6
170.39	8.2301E+5	4.5128	0.0771	+36.3
170.59	8.2401E+5	4.5212	0.0777	-324.7
170.77	8.2501E+5	4.5113	0.0764	+36.7
170.99	8.2601E+5	4.5156	0.0768	+32.4
171.17	8.2701E+5	4.5184	0.0796	+38.6
171.37	8.2801E+5	4.5085	0.0816	+34.2
171.59	8.2901E+5	4.5180	0.0764	+30.8
171.80	8.3001E+5	4.5128	0.0780	+38.3
172.00	8.3101E+5	4.5128	0.0758	+37.6
172.20	8.3201E+5	4.5085	0.0744	-321.6
172.43	8.3301E+5	4.5077	0.0762	+42.2
172.63	8.3401E+5	4.5191	0.0767	-332.3
172.80	8.3501E+5	4.5170	0.0738	+37.9
173.00	8.3601E+5	4.5085	Inf	+26.8
173.20	8.3701E+5	4.5105	0.0733	-323.9
173.38	8.3801E+5	4.5102	0.0752	+28.4
173.58	8.3901E+5	4.5135	0.0746	+36.8
173.78	8.4001E+5	4.5113	0.0735	+30.5
174.00	8.4101E+5	4.5094	0.0741	+37.5
174.16	8.4201E+5	4.5234	0.0748	+32.6
174.38	8.4301E+5	4.5043	0.0724	+37.2
174.60	8.4401E+5	4.5197	0.0734	-330.3
174.83	8.4501E+5	4.5043	0.0737	+41.5
175.03	8.4601E+5	4.5096	0.0729	+33.4
175.21	8.4701E+5	4.5142	0.0715	+37.4
175.41	8.4801E+5	4.5156	0.0728	+43.0
175.59	8.4901E+5	4.5099	0.0725	+38.9
175.79	8.5001E+5	4.5197	Inf	+33.3
175.99	8.5101E+5	4.5071	0.0717	-324.5
176.19	8.5201E+5	4.5096	0.0712	+28.3
176.39	8.5301E+5	4.5137	0.0716	+30.2
176.59	8.5401E+5	4.5099	0.0705	+33.1
176.81	8.5501E+5	4.5128	0.0714	-324.1
177.01	8.5601E+5	4.5128	0.0716	-326.2
177.21	8.5701E+5	4.5071	0.0697	+32.1
177.42	8.5801E+5	4.5023	0.0738	+35.8
177.62	8.5901E+5	4.5159	0.0713	+35.5
177.82	8.6001E+5	4.5043	0.0701	+32.8
178.02	8.6101E+5	4.5139	0.0702	-329.0
178.22	8.6201E+5	4.5184	0.0698	+29.7
178.42	8.6301E+5	4.5099	0.0697	-327.0
178.62	8.6401E+5	4.5057	0.0708	+34.0
178.80	8.6501E+5	4.5087	0.0692	+34.6
179.00	8.6601E+5	4.5109	Inf	+29.8
179.19	8.6701E+5	4.5087	0.0688	+28.2
179.37	8.6801E+5	4.5079	0.0690	-325.6
179.55	8.6901E+5	4.5063	0.0684	-324.8
179.73	8.7001E+5	4.5101	0.0680	+25.6
179.92	8.7101E+5	4.5084	0.0679	+39.2
180.10	8.7201E+5	4.5085	0.0688	+42.3
180.30	8.7301E+5	4.5096	0.0676	-322.6
180.50	8.7401E+5	4.5012	0.0679	+37.9
180.67	8.7501E+5	4.5115	0.0676	+38.9
180.87	8.7601E+5	4.5029	0.0674	+34.1
181.06	8.7701E+5	4.5156	0.0671	+27.5
181.28	8.7801E+5	4.5099	0.0661	+41.2
181.46	8.7901E+5	4.5109	0.0671	-325.2
181.65	8.8001E+5	4.5133	0.0669	+39.6
181.85	8.8101E+5	4.5057	0.0666	+38.4
182.05	8.8201E+5	4.5037	0.0669	+30.7
182.23	8.8301E+5	4.5116	0.0658	+30.6
182.41	8.8401E+5	4.5113	0.0716	+29.6
182.63	8.8501E+5	4.5012	0.0665	+34.1
182.83	8.8601E+5	4.5120	0.0663	+34.3
183.03	8.8701E+5	4.5043	0.0660	+33.9
183.21	8.8801E+5	4.5040	0.0663	-332.5
183.39	8.8901E+5	4.5040	0.0647	+36.5
183.59	8.9001E+5	4.5157	0.0673	-323.5
183.82	8.9101E+5	4.5099	0.0661	+23.1
184.03	8.9201E+5	4.5074	0.0641	+34.0
184.22	8.9301E+5	4.5013	0.0641	+32.6
184.41	8.9401E+5	4.5017	0.0637	+35.0
184.59	8.9501E+5	4.5057	Inf	+39.2
184.76	8.9601E+5	4.5067	0.0654	+33.9
184.96	8.9701E+5	4.5037	0.0643	+38.8
185.16	8.9801E+5	4.5064	0.0638	+32.9
185.34	8.9901E+5	4.5017	0.0635	+30.1
185.50	9.0001E+5	4.4985	0.0636	+36.0
185.69	9.0101E+5	4.5040	0.0641	+28.4
185.87	9.0201E+5	4.5034	Inf	+31.5
186.05	9.0301E+5	4.5058	0.0642	+33.0
186.22	9.0401E+5	4.5033	0.0632	+32.5
186.40	9.0501E+5	4.5019	0.0631	+28.2
186.59	9.0601E+5	4.5016	0.0645	+25.6
186.77	9.0701E+5	4.5098	0.0628	+27.8
186.97	9.0801E+5	4.5113	0.0630	+32.8
187.17	9.0901E+5	4.5060	0.0624	+31.0
187.37	9.1001E+5	4.4997	0.0632	-330.8
187.55	9.1101E+5	4.5065	0.0627	-332.8
187.75	9.1201E+5	4.5031	0.0615	+29.1
187.95	9.1301E+5	4.5014	0.0634	-327.3
188.15	9.1401E+5	4.5020	0.0618	+31.6
188.33	9.1501E+5	4.5071	0.0617	+25.3
188.51	9.1601E+5	4.5079	0.0622	+29.0
188.70	9.1701E+5	4.5065	0.0612	+26.9
188.88	9.1801E+5	4.4988	0.0610	+33.3
189.06	9.1901E+5	4.5027	Inf	+378.9
189.25	9.2001E+5	4.5005	0.0605	+29.2
189.47	9.2101E+5	4.5026	0.0607	+36.0
189.63	9.2201E+5	4.4995	0.0601	+31.8
189.83	9.2301E+5	4.5029	0.0603	+32.1
190.03	9.2401E+5	4.5017	Inf	+29.1
190.20	9.2501E+5	4.5006	0.0598	+31.8
190.39	9.2601E+5	4.5120	0.0598	+33.4
190.59	9.2701E+5	4.5000	0.0629	+36.0
190.79	9.2801E+5	4.5063	0.0601	+25.1
190.99	9.2901E+5	4.5038	0.0588	+27.9
191.18	9.3001E+5	4.5037	0.0591	+32.4
191.39	9.3101E+5	4.5037	0.0589	+24.5
191.56	9.3201E+5	4.5051	0.0590	+28.4
191.74	9.3301E+5	4.5024	0.0590	+32.1
191.91	9.3401E+5	4.5098	0.0583	+30.1
192.09	9.3501E+5	4.4997	0.0581	+26.5
192.28	9.3601E+5	4.5046	0.0593	-331.5
192.47	9.3701E+5	4.4956	0.0582	+30.5
192.66	9.3801E+5	4.4972	0.0580	+27.0
192.84	9.3901E+5	4.4949	0.0592	-329.8
193.04	9.4001E+5	4.4969	0.0575	+28.6
193.22	9.4101E+5	4.5029	0.0577	+27.8
193.41	9.4201E+5	4.5074	0.0572	+28.7
193.60	9.4301E+5	4.4976	0.0582	-336.2
193.79	9.4401E+5	4.5019	0.0576	+27.7
193.97	9.4501E+5	4.5055	0.0572	+27.6
194.17	9.4601E+5	4.4990	0.0568	+32.8
194.34	9.4701E+5	4.4934	Inf	+12.1
194.52	9.4801E+5	4.4988	0.0567	+26.3
194.70	9.4901E+5	4.4973	Inf	+23.4
194.87	9.5001E+5	4.5009	0.0575	+27.4
195.07	9.5101E+5	4.5074	0.0579	+31.6
195.25	9.5201E+5	4.5033	0.0579	+32.3
195.42	9.5301E+5	4.4931	0.0561	+36.9
195.62	9.5401E+5	4.4997	0.0581	+33.7
195.82	9.5501E+5	4.4961	Inf	+18.8
195.98	9.5601E+5	4.4958	0.0570	+29.4
196.18	9.5701E+5	4.5003	0.0559	+24.3
196.37	9.5801E+5	4.4980	0.0557	+31.4
196.55	9.5901E+5	4.4949	0.0556	+32.4
196.71	9.6001E+5	4.5038	0.0572	-336.4
196.92	9.6101E+5	4.4978	0.0546	+29.0
197.10	9.6201E+5	4.5013	0.0577	-330.6
197.30	9.6301E+5	4.4982	0.0557	+32.4
197.50	9.6401E+5	4.5050	0.0550	+29.0
197.66	9.6501E+5	4.4887	0.0542	+26.9
197.86	9.6601E+5	4.5002	0.0565	-335.2
198.06	9.6701E+5	4.4949	0.0553	+29.2
198.25	9.6801E+5	4.5014	0.0542	+30.8
198.44	9.6901E+5	4.4988	0.0539	+28.8
198.61	9.7001E+5	4.4928	0.0543	+25.3
198.79	9.7101E+5	4.4958	0.0549	+33.1
198.99	9.7201E+5	4.4922	0.0539	+27.5
199.18	9.7301E+5	4.4914	0.0538	+27.7
199.36	9.7401E+5	4.5006	0.0547	-332.6
199.56	9.7501E+5	4.4932	0.0537	+29.7
199.74	9.7601E+5	4.5000	0.0553	+29.0
199.94	9.7701E+5	4.4887	0.0564	+31.9
200.12	9.7801E+5	4.4901	Inf	+20.0
200.29	9.7901E+5	4.5029	0.0536	+26.8
200.49	9.8001E+5	4.4986	0.0539	+24.7
200.66	9.8101E+5	4.5043	0.0543	+22.1
200.84	9.8201E+5	4.4944	0.0533	+22.6
201.02	9.8301E+5	4.4944	0.0546	-334.4
201.21	9.8401E+5	4.4986	0.0535	+29.9
201.40	9.8501E+5	4.4944	0.0528	+29.6
201.59	9.8601E+5	4.4972	Inf	+29.1
201.77	9.8701E+5	4.4915	0.0524	+38.2
201.94	9.8801E+5	4.4972	0.0536	+20.4
202.12	9.8901E+5	4.4930	0.0530	+26.5
202.30	9.9001E+5	4.4958	0.0529	+25.3
202.50	9.9101E+5	4.4816	0.0536	+27.4
202.70	9.9201E+5	4.4986	0.0524	+27.5
202.92	9.9301E+5	4.5043	0.0535	-335.6
203.10	9.9401E+5	4.4831	0.0520	+24.5
203.32	9.9501E+5	4.4958	0.0527	+35.8
203.52	9.9601E+5	4.4972	0.0537	-329.6
203.70	9.9701E+5	4.4944	0.0542	-334.1
203.88	9.9801E+5	4.4901	0.0523	+23.8
204.06	9.9901E+5	4.4873	Inf	+365.6
204.25	1.0000E+6	4.4930	0.0547	-337.6
204.45	1.0010E+6	4.4972	0.0529	-335.3
204.63	1.0020E+6	4.4972	0.0522	+25.6
204.81	1.0030E+6	4.4958	Inf	+32.6
204.98	1.0040E+6	4.4845	0.0514	+29.1
205.18	1.0050E+6	4.4915	0.0524	+18.1
205.38	1.0060E+6	4.5043	0.0521	+26.8
205.54	1.0070E+6	4.5071	Inf	+24.9
205.71	1.0080E+6	4.5071	0.0514	+21.1
205.90	1.0090E+6	4.5128	0.0522	+24.9
206.11	1.0100E+6	4.5085	0.0513	+21.8
206.33	1.0110E+6	4.5057	0.0519	+22.3
206.51	1.0120E+6	4.5113	0.0522	-338.5
206.68	1.0130E+6	4.5071	0.0517	-336.8
206.84	1.0140E+6	4.5085	0.0514	+27.0
207.04	1.0150E+6	4.5057	0.0506	+25.4
207.21	1.0160E+6	4.4958	0.0518	+34.2
207.41	1.0170E+6	4.5071	Inf	+17.6
207.59	1.0180E+6	4.4986	0.0540	-341.8
207.77	1.0190E+6	4.5071	0.0517	-336.9
207.97	1.0200E+6	4.5085	0.0509	+20.7
208.16	1.0210E+6	4.5043	0.0527	-342.4
208.36	1.0220E+6	4.5014	0.0515	-340.8
208.54	1.0230E+6	4.5043	Inf	+374.9
208.72	1.0240E+6	4.5071	Inf	+365.9
208.90	1.0250E+6	4.5057	0.0508	+26.6
209.07	1.0260E+6	4.5000	Inf	+26.0
209.25	1.0270E+6	4.5071	0.0503	+20.3
209.42	1.0280E+6	4.5057	0.0505	+21.5
209.60	1.0290E+6	4.5029	Inf	+26.7
209.77	1.0300E+6	4.5099	0.0491	+24.6
209.97	1.0310E+6	4.5057	0.0503	-331.4
210.17	1.0320E+6	4.5071	0.0496	+21.6
210.35	1.0330E+6	4.5085	0.0499	+19.7
210.54	1.0340E+6	4.4958	0.0515	+35.5
210.72	1.0350E+6	4.4972	0.0498	-340.3
210.92	1.0360E+6	4.4972	0.0495	+20.1
211.08	1.0370E+6	4.5057	0.0501	-340.4
211.27	1.0380E+6	4.5071	0.0501	+28.9
211.45	1.0390E+6	4.5057	0.0468	+23.7
211.63	1.0400E+6	4.5085	0.0498	+23.0
211.83	1.0410E+6	4.5071	0.0499	-338.4
212.00	1.0420E+6	4.4972	0.0491	+25.7
212.18	1.0430E+6	4.5099	Inf	+16.2
212.35	1.0440E+6	4.5029	0.0501	-338.1
212.53	1.0450E+6	4.4972	0.0477	+21.8
212.71	1.0460E+6	4.5014	0.0504	+30.2
212.91	1.0470E+6	4.5014	0.0495	+25.4
213.09	1.0480E+6	4.5029	0.0488	+19.6
213.28	1.0490E+6	4.5014	0.0483	+19.2
213.48	1.0500E+6	4.4972	Inf	-330.2
213.64	1.0510E+6	4.5029	Inf	+27.1
213.83	1.0520E+6	4.4972	0.0492	-343.9
214.01	1.0530E+6	4.5043	Inf	+26.3
214.19	1.0540E+6	4.5029	0.0480	+28.4
214.38	1.0550E+6	4.5071	0.0481	+22.1
214.56	1.0560E+6	4.5071	0.0491	-342.7
214.74	1.0570E+6	4.5071	0.0478	+28.3
214.94	1.0580E+6	4.5014	Inf	-327.5
215.11	1.0590E+6	4.4972	0.0468	+26.1
215.31	1.0600E+6	4.5043	0.0466	+22.8
215.49	1.0610E+6	4.5099	Inf	-338.5
215.66	1.0620E+6	4.5057	0.0475	+26.7
215.86	1.0630E+6	4.5014	0.0490	+22.3
216.04	1.0640E+6	4.5014	0.0482	+29.7
216.24	1.0650E+6	4.5014	0.0478	+25.8
216.41	1.0660E+6	4.5000	0.0487	+19.4
216.57	1.0670E+6	4.5043	Inf	+376.3
216.74	1.0680E+6	4.5043	Inf	+12.9
216.92	1.0690E+6	4.4972	0.0497	-345.8
217.10	1.0700E+6	4.4972	0.0480	+26.5
217.30	1.0710E+6	4.5071	0.0464	+14.9
217.49	1.0720E+6	4.5057	0.0497	-340.1
217.69	1.0730E+6	4.5057	0.0478	-339.4
217.87	1.0740E+6	4.4915	0.0462	+19.9
218.07	1.0750E+6	4.5014	0.0485	-342.3
218.25	1.0760E+6	4.4944	0.0482	+25.3
218.43	1.0770E+6	4.4972	0.0460	+26.1
218.62	1.0780E+6	4.4944	Inf	+14.9
218.80	1.0790E+6	4.4958	0.0474	-338.3
218.98	1.0800E+6	4.4972	0.0453	+22.5
219.18	1.0810E+6	4.5014	0.0487	-345.2
219.37	1.0820E+6	4.5000	0.0483	-340.9
219.55	1.0830E+6	4.5014	0.0468	+13.3
219.73	1.0840E+6	4.5043	0.0464	+20.0
219.91	1.0850E+6	4.4986	0.0470	+27.0
220.10	1.0860E+6	4.5000	0.0486	-342.8
220.28	1.0870E+6	4.4901	0.0455	+25.4
220.48	1.0880E+6	4.5043	0.0463	+18.0
220.66	1.0890E+6	4.4944	0.0467	+25.9
220.85	1.0900E+6	4.4972	Inf	-345.1
221.01	1.0910E+6	4.4986	0.0449	+20.2
221.21	1.0920E+6	4.4944	0.0462	+23.6
221.40	1.0930E+6	4.5014	0.0470	+20.1
221.58	1.0940E+6	4.4944	0.0460	+25.6
221.74	1.0950E+6	4.4915	0.0475	-343.9
221.94	1.0960E+6	4.4958	0.0458	+21.9
222.13	1.0970E+6	4.4986	0.0466	-348.6
222.33	1.0980E+6	4.4944	0.0457	+24.7
222.51	1.0990E+6	4.4958	0.0461	+10.7
222.71	1.1000E+6	4.5014	0.0462	+23.2
222.86	1.1010E+6	4.4901	0.0444	+21.6
223.06	1.1020E+6	4.4944	0.0448	+16.9
223.24	1.1030E+6	4.4944	0.0444	+18.5
223.44	1.1040E+6	4.4972	Inf	+28.0
223.61	1.1050E+6	4.4859	0.0445	+25.0
223.79	1.1060E+6	4.4930	0.0483	-346.9
223.97	1.1070E+6	4.4873	0.0462	+28.7
224.16	1.1080E+6	4.4831	0.0448	+19.1
224.37	1.1090E+6	4.4972	0.0454	+21.8
224.55	1.1100E+6	4.4901	0.0432	+19.2
224.75	1.1110E+6	4.4859	0.0444	+22.6
224.92	1.1120E+6	4.4986	Inf	+374.4
225.10	1.1130E+6	4.4887	0.0452	-342.4
225.29	1.1140E+6	4.4901	Inf	+18.6
225.47	1.1150E+6	4.4901	0.0460	-339.3
225.65	1.1160E+6	4.4859	Inf	-343.5
225.82	1.1170E+6	4.4915	0.0443	+22.9
226.00	1.1180E+6	4.4887	0.0448	+20.7
226.20	1.1190E+6	4.4873	Inf	+25.1
226.37	1.1200E+6	4.4930	0.0416	+13.5
226.57	1.1210E+6	4.4887	Inf	+377.2
226.73	1.1220E+6	4.4887	Inf	+384.8
226.92	1.1230E+6	4.4930	0.0453	-342.2
227.10	1.1240E+6	4.5000	Inf	+389.8
227.28	1.1250E+6	4.4915	0.0442	+20.8
227.47	1.1260E+6	4.4958	Inf	-333.0
227.65	1.1270E+6	4.4915	0.0423	+27.2
227.83	1.1280E+6	4.4915	Inf	+14.9
228.01	1.1290E+6	4.4887	0.0439	+15.5
228.20	1.1300E+6	4.4930	0.0434	+18.7
228.36	1.1310E+6	4.4774	Inf	+375.4
228.55	1.1320E+6	4.4831	0.0443	+19.8
228.71	1.1330E+6	4.4873	Inf	+387.9
228.91	1.1340E+6	4.4915	0.0439	+16.7
229.08	1.1350E+6	4.4873	0.0433	+17.6
229.26	1.1360E+6	4.4831	Inf	+21.8
229.44	1.1370E+6	4.4901	0.0430	+18.2
229.66	1.1380E+6	4.4887	Inf	+373.3
229.83	1.1390E+6	4.4901	0.0452	-350.4
230.03	1.1400E+6	4.4859	0.0444	+26.8
230.21	1.1410E+6	4.4915	Inf	-345.2
230.38	1.1420E+6	4.4972	0.0434	+17.2
230.54	1.1430E+6	4.4944	Inf	+366.0
230.71	1.1440E+6	4.4887	0.0435	+16.7
230.86	1.1450E+6	4.4915	0.0452	-347.8
231.04	1.1460E+6	4.4873	Inf	+387.9
231.22	1.1470E+6	4.4845	0.0442	+21.9
231.41	1.1480E+6	4.4944	0.0453	-349.1
231.61	1.1490E+6	4.4859	0.0406	+23.8
231.79	1.1500E+6	4.4802	0.0446	+17.3
232.00	1.1510E+6	4.4873	0.0396	+14.3
232.21	1.1520E+6	4.4831	0.0424	+18.9
232.42	1.1530E+6	4.4930	0.0442	-339.8
232.62	1.1540E+6	4.4788	Inf	+9.0
232.82	1.1550E+6	4.4901	Inf	+16.2
233.00	1.1560E+6	4.4831	0.0431	+14.8
233.20	1.1570E+6	4.4972	0.0437	+24.6
233.42	1.1580E+6	4.4859	Inf	+375.1
233.58	1.1590E+6	4.4887	Inf	+381.7
233.77	1.1600E+6	4.4774	Inf	+14.6
233.95	1.1610E+6	4.4915	0.0430	+17.5
234.17	1.1620E+6	4.4831	0.0438	+12.8
234.37	1.1630E+6	4.4958	0.0452	-348.1
234.58	1.1640E+6	4.4831	0.0421	+21.0
234.78	1.1650E+6	4.4930	Inf	+15.9
234.97	1.1660E+6	4.4816	Inf	-347.0
235.16	1.1670E+6	4.4859	Inf	+13.7
235.35	1.1680E+6	4.4845	Inf	+385.1
235.53	1.1690E+6	4.4802	0.0421	+15.1
235.71	1.1700E+6	4.4845	0.0438	+17.9
235.93	1.1710E+6	4.4845	Inf	+379.6
236.10	1.1720E+6	4.4788	0.0431	+16.5
236.30	1.1730E+6	4.4859	0.0436	-340.8
236.51	1.1740E+6	4.4845	0.0418	+21.5
236.69	1.1750E+6	4.4788	0.0424	+14.6
236.90	1.1760E+6	4.4930	0.0416	+15.5
237.09	1.1770E+6	4.4802	0.0417	+16.5
237.29	1.1780E+6	4.4887	0.0431	+15.9
237.49	1.1790E+6	4.4845	Inf	-334.5
237.68	1.1800E+6	4.4831	0.0413	+15.5
237.88	1.1810E+6	4.4845	Inf	+Inf
238.06	1.1820E+6	4.4930	Inf	-346.6
238.24	1.1830E+6	4.4788	0.0424	+18.7
238.44	1.1840E+6	4.4958	0.0425	+21.8
238.64	1.1850E+6	4.4831	0.0435	-351.1
238.84	1.1860E+6	4.4859	0.0415	+20.9
239.06	1.1870E+6	4.4802	Inf	+373.7
239.24	1.1880E+6	4.4831	Inf	+346.5
239.39	1.1890E+6	4.4774	0.0420	+16.1
239.59	1.1900E+6	4.4901	0.0424	-344.6
239.75	1.1910E+6	4.4746	0.0424	-343.1
239.95	1.1920E+6	4.4944	0.0421	+22.1
240.12	1.1930E+6	4.4859	0.0405	+22.4
240.29	1.1940E+6	4.4732	Inf	+10.8
240.49	1.1950E+6	4.4845	0.0412	+17.0
240.65	1.1960E+6	4.4845	0.0406	+21.8
240.84	1.1970E+6	4.4802	0.0407	+15.3
241.02	1.1980E+6	4.4887	0.0413	+16.8
241.22	1.1990E+6	4.4816	0.0419	+17.9
241.42	1.2000E+6	4.4788	Inf	+6.7
241.59	1.2010E+6	4.4887	0.0423	+19.9
241.78	1.2020E+6	4.4816	Inf	+4.3
241.95	1.2030E+6	4.4760	Inf	+23.6
242.13	1.2040E+6	4.4845	0.0397	+15.6
242.33	1.2050E+6	4.4774	0.0382	+20.2
242.51	1.2060E+6	4.4859	0.0398	+20.0
242.73	1.2070E+6	4.4845	Inf	+18.2
242.90	1.2080E+6	4.4774	Inf	-5.9
243.10	1.2090E+6	4.4746	Inf	+21.6
243.25	1.2100E+6	4.4845	0.0405	-351.7
243.46	1.2110E+6	4.4689	0.0381	+18.8
243.66	1.2120E+6	4.4732	0.0382	+20.5
